/*Capacitance offset pF, Max pulse voltage, Reverse bias voltage, Pulse width, td, # measurements, C-range(12=2pF,13=2pF...), delay0.000 11.000 -10.000 0.050 0.010 64.000 NaN 0.005
/*CV voltage, CV capacitance, Pulse bias voltage, DLTS signal 0.000
1.000000E+0	9.551000E-11	-9.900000E+0	3.125000E-5
9.000000E-1	8.430000E-11	-9.800000E+0	2.562500E-4
8.000000E-1	7.634000E-11	-9.700000E+0	4.687500E-4
7.000000E-1	7.048000E-11	-9.600000E+0	7.093750E-4
6.000000E-1	6.613000E-11	-9.500000E+0	5.875000E-4
5.000000E-1	6.285000E-11	-9.400000E+0	8.218750E-4
4.000000E-1	6.037000E-11	-9.300000E+0	1.275000E-3
3.000000E-1	5.840000E-11	-9.200000E+0	1.318750E-3
2.000000E-1	5.681000E-11	-9.100000E+0	1.787500E-3
1.000000E-1	5.546000E-11	-9.000000E+0	1.659375E-3
0.000000E+0	5.426000E-11	-8.900000E+0	2.050000E-3
-1.000000E-1	5.323000E-11	-8.800000E+0	2.600000E-3
-2.000000E-1	5.224000E-11	-8.700000E+0	2.321875E-3
-3.000000E-1	5.128000E-11	-8.600000E+0	3.031250E-3
-4.000000E-1	5.030000E-11	-8.500000E+0	2.696875E-3
-5.000000E-1	4.928000E-11	-8.400000E+0	3.531250E-3
-6.000000E-1	4.825000E-11	-8.300000E+0	3.375000E-3
-7.000000E-1	4.723000E-11	-8.200000E+0	3.665625E-3
-8.000000E-1	4.623000E-11	-8.100000E+0	4.025000E-3
-9.000000E-1	4.526000E-11	-8.000000E+0	3.828125E-3
-1.000000E+0	4.434000E-11	-7.900000E+0	4.687500E-3
-1.100000E+0	4.348000E-11	-7.800000E+0	4.459375E-3
-1.200000E+0	4.270000E-11	-7.700000E+0	4.662500E-3
-1.300000E+0	4.196000E-11	-7.600000E+0	5.428125E-3
-1.400000E+0	4.127000E-11	-7.500000E+0	4.996875E-3
-1.500000E+0	4.064000E-11	-7.400000E+0	5.440625E-3
-1.600000E+0	4.003000E-11	-7.300000E+0	5.909375E-3
-1.700000E+0	3.943000E-11	-7.200000E+0	5.790625E-3
-1.800000E+0	3.885000E-11	-7.100000E+0	6.353125E-3
-1.900000E+0	3.830000E-11	-7.000000E+0	6.231250E-3
-2.000000E+0	3.776000E-11	-6.900000E+0	6.668750E-3
-2.100000E+0	3.723000E-11	-6.800000E+0	6.787500E-3
-2.200000E+0	3.672000E-11	-6.700000E+0	7.153125E-3
-2.300000E+0	3.623000E-11	-6.600000E+0	7.078125E-3
-2.400000E+0	3.577000E-11	-6.500000E+0	7.571875E-3
-2.500000E+0	3.531000E-11	-6.400000E+0	7.471875E-3
-2.600000E+0	3.489000E-11	-6.300000E+0	8.106250E-3
-2.700000E+0	3.449000E-11	-6.200000E+0	8.040625E-3
-2.800000E+0	3.410000E-11	-6.100000E+0	8.106250E-3
-2.900000E+0	3.375000E-11	-6.000000E+0	8.703125E-3
-3.000000E+0	3.340000E-11	-5.900000E+0	8.618750E-3
-3.100000E+0	3.307000E-11	-5.800000E+0	9.190625E-3
-3.200000E+0	3.273000E-11	-5.700000E+0	9.200000E-3
-3.300000E+0	3.240000E-11	-5.600000E+0	9.309375E-3
-3.400000E+0	3.209000E-11	-5.500000E+0	9.600000E-3
-3.500000E+0	3.177000E-11	-5.400000E+0	9.728125E-3
-3.600000E+0	3.148000E-11	-5.300000E+0	1.011250E-2
-3.700000E+0	3.116000E-11	-5.200000E+0	1.014375E-2
-3.800000E+0	3.087000E-11	-5.100000E+0	1.070937E-2
-3.900000E+0	3.057000E-11	-5.000000E+0	1.056562E-2
-4.000000E+0	3.028000E-11	-4.900000E+0	1.101875E-2
-4.100000E+0	3.000000E-11	-4.800000E+0	1.102500E-2
-4.200000E+0	2.973000E-11	-4.700000E+0	1.154063E-2
-4.300000E+0	2.946000E-11	-4.600000E+0	1.150000E-2
-4.400000E+0	2.921000E-11	-4.500000E+0	1.175938E-2
-4.500000E+0	2.898000E-11	-4.400000E+0	1.199375E-2
-4.600000E+0	2.874000E-11	-4.300000E+0	1.212500E-2
-4.700000E+0	2.852000E-11	-4.200000E+0	1.211250E-2
-4.800000E+0	2.831000E-11	-4.100000E+0	1.262500E-2
-4.900000E+0	2.810000E-11	-4.000000E+0	1.258750E-2
-5.000000E+0	2.791000E-11	-3.900000E+0	1.298750E-2
-5.100000E+0	2.771000E-11	-3.800000E+0	1.314063E-2
-5.200000E+0	2.752000E-11	-3.700000E+0	1.339063E-2
-5.300000E+0	2.734000E-11	-3.600000E+0	1.345625E-2
-5.400000E+0	2.716000E-11	-3.500000E+0	1.385312E-2
-5.500000E+0	2.697000E-11	-3.400000E+0	1.380937E-2
-5.600000E+0	2.679000E-11	-3.300000E+0	1.414375E-2
-5.700000E+0	2.662000E-11	-3.200000E+0	1.413437E-2
-5.800000E+0	2.644000E-11	-3.100000E+0	1.425937E-2
-5.900000E+0	2.627000E-11	-3.000000E+0	1.461563E-2
-6.000000E+0	2.609000E-11	-2.900000E+0	1.478437E-2
-6.100000E+0	2.592000E-11	-2.800000E+0	1.492813E-2
-6.200000E+0	2.576000E-11	-2.700000E+0	1.511250E-2
-6.300000E+0	2.559000E-11	-2.600000E+0	1.538750E-2
-6.400000E+0	2.542000E-11	-2.500000E+0	1.544375E-2
-6.500000E+0	2.526000E-11	-2.400000E+0	1.560625E-2
-6.600000E+0	2.511000E-11	-2.300000E+0	1.595625E-2
-6.700000E+0	2.495000E-11	-2.200000E+0	1.584375E-2
-6.800000E+0	2.480000E-11	-2.100000E+0	1.615625E-2
-6.900000E+0	2.466000E-11	-2.000000E+0	1.638125E-2
-7.000000E+0	2.453000E-11	-1.900000E+0	1.667500E-2
-7.100000E+0	2.439000E-11	-1.800000E+0	1.666875E-2
-7.200000E+0	2.426000E-11	-1.700000E+0	1.677188E-2
-7.300000E+0	2.414000E-11	-1.600000E+0	1.682813E-2
-7.400000E+0	2.402000E-11	-1.500000E+0	1.717187E-2
-7.500000E+0	2.390000E-11	-1.400000E+0	1.709063E-2
-7.600000E+0	2.379000E-11	-1.300000E+0	1.756875E-2
-7.700000E+0	2.367000E-11	-1.200000E+0	1.735625E-2
-7.800000E+0	2.356000E-11	-1.100000E+0	1.775313E-2
-7.900000E+0	2.345000E-11	-1.000000E+0	1.792188E-2
-8.000000E+0	2.334000E-11	-9.000000E-1	1.821563E-2
-8.100000E+0	2.323000E-11	-8.000000E-1	1.868438E-2
-8.200000E+0	2.312000E-11	-7.000000E-1	1.967812E-2
-8.300000E+0	2.302000E-11	-6.000000E-1	2.089062E-2
-8.400000E+0	2.290000E-11	-5.000000E-1	2.250938E-2
-8.500000E+0	2.278000E-11	-4.000000E-1	2.508438E-2
-8.600000E+0	2.268000E-11	-3.000000E-1	2.746563E-2
-8.700000E+0	2.257000E-11	-2.000000E-1	3.093437E-2
-8.800000E+0	2.245000E-11	-1.000000E-1	3.495938E-2
-8.900000E+0	2.234000E-11	0.000000E+0	3.824062E-2
-9.000000E+0	2.224000E-11	1.000000E-1	4.186250E-2
-9.100000E+0	2.213000E-11	2.000000E-1	4.414063E-2
-9.200000E+0	2.202000E-11	3.000000E-1	4.628750E-2
-9.300000E+0	2.192000E-11	4.000000E-1	4.773438E-2
-9.400000E+0	2.182000E-11	5.000000E-1	4.870937E-2
-9.500000E+0	2.172000E-11	6.000000E-1	4.978125E-2
-9.600000E+0	2.162000E-11	7.000000E-1	5.032813E-2
-9.700000E+0	2.152000E-11	8.000000E-1	5.078750E-2
-9.800000E+0	2.144000E-11	9.000000E-1	5.106875E-2
-9.900000E+0	2.135000E-11	1.000000E+0	5.131250E-2
-1.000000E+1	2.126000E-11	NaN	NaN
